## w(eV)         sigma(Sm^-1)     kappa(W(mK)^-1)        L12/e(Am^-1)      L22/e^2(Wm^-1)
    0.01              184103             6385.19        -6.90334e+06         8.63741e+08
    0.03              184102              6385.4        -6.90357e+06         8.63779e+08
    0.05              184101             6385.82        -6.90403e+06         8.63855e+08
    0.07              184100             6386.45        -6.90472e+06         8.63969e+08
    0.09              184098             6387.29        -6.90565e+06         8.64121e+08
    0.11              184095             6388.35         -6.9068e+06         8.64311e+08
    0.13              184092             6389.61        -6.90819e+06         8.64539e+08
    0.15              184088             6391.08        -6.90981e+06         8.64806e+08
    0.17              184083             6392.76        -6.91166e+06          8.6511e+08
    0.19              184079             6394.65        -6.91374e+06         8.65452e+08
    0.21              184073             6396.75        -6.91605e+06         8.65832e+08
    0.23              184067             6399.06        -6.91859e+06         8.66251e+08
    0.25              184061             6401.58        -6.92136e+06         8.66707e+08
    0.27              184054             6404.31        -6.92436e+06         8.67201e+08
    0.29              184046             6407.25         -6.9276e+06         8.67733e+08
    0.31              184038             6410.39        -6.93106e+06         8.68303e+08
    0.33              184029             6413.74        -6.93475e+06         8.68911e+08
    0.35              184020              6417.3        -6.93868e+06         8.69557e+08
    0.37              184010             6421.06        -6.94283e+06         8.70241e+08
    0.39              184000             6425.03        -6.94722e+06         8.70963e+08
    0.41              183989              6429.2        -6.95183e+06         8.71722e+08
    0.43              183978             6433.58        -6.95667e+06         8.72519e+08
    0.45              183966             6438.17        -6.96175e+06         8.73354e+08
    0.47              183954             6442.96        -6.96705e+06         8.74227e+08
    0.49              183941             6447.95        -6.97258e+06         8.75138e+08
    0.51              183927             6453.14        -6.97834e+06         8.76086e+08
    0.53              183913             6458.54        -6.98433e+06         8.77072e+08
    0.55              183899             6464.14        -6.99055e+06         8.78096e+08
    0.57              183884             6469.93        -6.99699e+06         8.79157e+08
    0.59              183868             6475.93        -7.00367e+06         8.80256e+08
    0.61              183852             6482.13        -7.01057e+06         8.81392e+08
    0.63              183836             6488.52         -7.0177e+06         8.82566e+08
    0.65              183818             6495.11        -7.02506e+06         8.83778e+08
    0.67              183801              6501.9        -7.03264e+06         8.85027e+08
    0.69              183783             6508.89        -7.04045e+06         8.86313e+08
    0.71              183764             6516.07        -7.04849e+06         8.87637e+08
    0.73              183745             6523.44        -7.05676e+06         8.88998e+08
    0.75              183725             6531.01        -7.06525e+06         8.90397e+08
    0.77              183705             6538.77        -7.07397e+06         8.91833e+08
    0.79              183684             6546.72        -7.08291e+06         8.93305e+08
    0.81              183663             6554.85        -7.09208e+06         8.94816e+08
    0.83              183641             6563.18        -7.10147e+06         8.96363e+08
    0.85              183619              6571.7        -7.11109e+06         8.97947e+08
    0.87              183597              6580.4        -7.12093e+06         8.99569e+08
    0.89              183573             6589.29        -7.13099e+06         9.01227e+08
    0.91              183550             6598.36        -7.14128e+06         9.02923e+08
    0.93              183525             6607.62         -7.1518e+06         9.04655e+08
    0.95              183501             6617.06        -7.16253e+06         9.06424e+08
    0.97              183476             6626.68        -7.17349e+06          9.0823e+08
    0.99              183450             6636.48        -7.18467e+06         9.10072e+08
    1.01              183424             6646.45        -7.19608e+06         9.11952e+08
    1.03              183397             6656.61         -7.2077e+06         9.13868e+08
    1.05              183370             6666.94        -7.21955e+06          9.1582e+08
    1.07              183343             6677.44        -7.23161e+06         9.17809e+08
    1.09              183315             6688.12         -7.2439e+06         9.19834e+08
    1.11              183286             6698.97         -7.2564e+06         9.21896e+08
    1.13              183257             6709.99        -7.26913e+06         9.23994e+08
    1.15              183228             6721.18        -7.28207e+06         9.26128e+08
    1.17              183198             6732.54        -7.29524e+06         9.28299e+08
    1.19              183167             6744.06        -7.30862e+06         9.30505e+08
    1.21              183136             6755.74        -7.32222e+06         9.32748e+08
    1.23              183105             6767.59        -7.33603e+06         9.35026e+08
    1.25              183073              6779.6        -7.35006e+06         9.37341e+08
    1.27              183041             6791.77        -7.36431e+06         9.39691e+08
    1.29              183009              6804.1        -7.37877e+06         9.42077e+08
    1.31              182975             6816.59        -7.39345e+06         9.44498e+08
    1.33              182942             6829.22        -7.40834e+06         9.46955e+08
    1.35              182908             6842.02        -7.42345e+06         9.49448e+08
    1.37              182873             6854.96        -7.43877e+06         9.51976e+08
    1.39              182839             6868.06         -7.4543e+06         9.54539e+08
    1.41              182803              6881.3        -7.47005e+06         9.57138e+08
    1.43              182768             6894.68        -7.48601e+06         9.59771e+08
    1.45              182731             6908.22        -7.50217e+06          9.6244e+08
    1.47              182695             6921.89        -7.51855e+06         9.65144e+08
    1.49              182658             6935.71        -7.53514e+06         9.67882e+08
    1.51              182620             6949.66        -7.55194e+06         9.70656e+08
    1.53              182583             6963.75        -7.56894e+06         9.73464e+08
    1.55              182544             6977.98        -7.58616e+06         9.76306e+08
    1.57              182506             6992.34        -7.60358e+06         9.79183e+08
    1.59              182467             7006.83         -7.6212e+06         9.82095e+08
    1.61              182427             7021.45        -7.63904e+06          9.8504e+08
    1.63              182387              7036.2        -7.65708e+06          9.8802e+08
    1.65              182347             7051.07        -7.67532e+06         9.91034e+08
    1.67              182306             7066.07        -7.69376e+06         9.94082e+08
    1.69              182265             7081.19        -7.71241e+06         9.97164e+08
    1.71              182224             7096.43        -7.73127e+06         1.00028e+09
    1.73              182182             7111.78        -7.75032e+06         1.00343e+09
    1.75              182140             7127.25        -7.76958e+06         1.00661e+09
    1.77              182097             7142.84        -7.78903e+06         1.00983e+09
    1.79              182054             7158.53        -7.80868e+06         1.01308e+09
    1.81              182011             7174.33        -7.82854e+06         1.01636e+09
    1.83              181967             7190.24        -7.84859e+06         1.01967e+09
    1.85              181923             7206.25        -7.86883e+06         1.02302e+09
    1.87              181879             7222.37        -7.88928e+06          1.0264e+09
    1.89              181834             7238.59        -7.90991e+06         1.02982e+09
    1.91              181789              7254.9        -7.93075e+06         1.03326e+09
    1.93              181743             7271.31        -7.95177e+06         1.03674e+09
    1.95              181697             7287.81        -7.97299e+06         1.04025e+09
    1.97              181651              7304.4         -7.9944e+06          1.0438e+09
    1.99              181604             7321.09          -8.016e+06         1.04737e+09
    2.01              181557             7337.85        -8.03779e+06         1.05098e+09
    2.03              181510             7354.71        -8.05977e+06         1.05462e+09
    2.05              181462             7371.64        -8.08194e+06         1.05829e+09
    2.07              181414             7388.65         -8.1043e+06         1.06199e+09
    2.09              181366             7405.74        -8.12684e+06         1.06572e+09
    2.11              181317             7422.91        -8.14957e+06         1.06948e+09
    2.13              181268             7440.14        -8.17248e+06         1.07328e+09
    2.15              181219             7457.45        -8.19557e+06         1.07711e+09
    2.17              181169             7474.82        -8.21885e+06         1.08096e+09
    2.19              181119             7492.26        -8.24231e+06         1.08485e+09
    2.21              181069             7509.76        -8.26594e+06         1.08877e+09
    2.23              181019             7527.32        -8.28976e+06         1.09271e+09
    2.25              180968             7544.94        -8.31375e+06         1.09669e+09
    2.27              180917             7562.61        -8.33793e+06          1.1007e+09
    2.29              180865             7580.33        -8.36227e+06         1.10473e+09
    2.31              180813             7598.11         -8.3868e+06          1.1088e+09
    2.33              180761             7615.93        -8.41149e+06          1.1129e+09
    2.35              180709              7633.8        -8.43636e+06         1.11702e+09
    2.37              180656             7651.71         -8.4614e+06         1.12117e+09
    2.39              180603             7669.65        -8.48661e+06         1.12536e+09
    2.41              180549             7687.64        -8.51199e+06         1.12957e+09
    2.43              180496             7705.66        -8.53754e+06         1.13381e+09
    2.45              180442             7723.71        -8.56325e+06         1.13807e+09
    2.47              180388             7741.79        -8.58913e+06         1.14237e+09
    2.49              180333              7759.9        -8.61518e+06         1.14669e+09
    2.51              180278             7778.03        -8.64138e+06         1.15104e+09
    2.53              180223             7796.19        -8.66775e+06         1.15542e+09
    2.55              180168             7814.36        -8.69428e+06         1.15983e+09
    2.57              180112             7832.55        -8.72097e+06         1.16426e+09
    2.59              180057             7850.75        -8.74782e+06         1.16872e+09
    2.61              180000             7868.97        -8.77482e+06         1.17321e+09
    2.63              179944             7887.19        -8.80198e+06         1.17772e+09
    2.65              179887             7905.41        -8.82929e+06         1.18226e+09
    2.67              179830             7923.64        -8.85675e+06         1.18683e+09
    2.69              179773             7941.88        -8.88437e+06         1.19142e+09
    2.71              179716              7960.1        -8.91214e+06         1.19604e+09
    2.73              179658             7978.33        -8.94005e+06         1.20068e+09
    2.75              179600             7996.54        -8.96812e+06         1.20535e+09
    2.77              179542             8014.75        -8.99632e+06         1.21004e+09
    2.79              179483             8032.94        -9.02468e+06         1.21476e+09
    2.81              179424             8051.12        -9.05317e+06          1.2195e+09
    2.83              179365             8069.28        -9.08181e+06         1.22426e+09
    2.85              179306             8087.42        -9.11058e+06         1.22905e+09
    2.87              179246             8105.53         -9.1395e+06         1.23387e+09
    2.89              179187             8123.62        -9.16855e+06          1.2387e+09
    2.91              179127             8141.68        -9.19774e+06         1.24356e+09
    2.93              179066             8159.71        -9.22706e+06         1.24845e+09
    2.95              179006              8177.7        -9.25651e+06         1.25336e+09
    2.97              178945             8195.66         -9.2861e+06         1.25828e+09
    2.99              178884             8213.57        -9.31581e+06         1.26324e+09
    3.01              178823             8231.45        -9.34566e+06         1.26821e+09
    3.03              178761             8249.28        -9.37562e+06         1.27321e+09
    3.05              178699             8267.06        -9.40572e+06         1.27822e+09
    3.07              178637             8284.79        -9.43593e+06         1.28326e+09
    3.09              178575             8302.47        -9.46627e+06         1.28832e+09
    3.11              178513              8320.1        -9.49673e+06          1.2934e+09
    3.13              178450             8337.66         -9.5273e+06          1.2985e+09
    3.15              178387             8355.17        -9.55799e+06         1.30362e+09
    3.17              178324             8372.61         -9.5888e+06         1.30877e+09
    3.19              178260             8389.99        -9.61971e+06         1.31393e+09
    3.21              178197             8407.29        -9.65074e+06         1.31911e+09
    3.23              178133             8424.53        -9.68188e+06         1.32431e+09
    3.25              178069             8441.69        -9.71313e+06         1.32953e+09
    3.27              178004             8458.78        -9.74448e+06         1.33476e+09
    3.29              177940             8475.79        -9.77594e+06         1.34002e+09
    3.31              177875             8492.71         -9.8075e+06         1.34529e+09
    3.33              177810             8509.56        -9.83916e+06         1.35059e+09
    3.35              177744             8526.31        -9.87091e+06         1.35589e+09
    3.37              177679             8542.98        -9.90277e+06         1.36122e+09
    3.39              177613             8559.56        -9.93472e+06         1.36656e+09
    3.41              177547             8576.04        -9.96676e+06         1.37192e+09
    3.43              177480             8592.42         -9.9989e+06          1.3773e+09
    3.45              177414             8608.71        -1.00311e+07         1.38269e+09
    3.47              177347              8624.9        -1.00634e+07          1.3881e+09
    3.49              177280             8640.98        -1.00958e+07         1.39352e+09
    3.51              177213             8656.96        -1.01283e+07         1.39896e+09
    3.53              177145             8672.82        -1.01609e+07         1.40442e+09
    3.55              177078             8688.58        -1.01935e+07         1.40988e+09
    3.57              177010             8704.22        -1.02262e+07         1.41537e+09
    3.59              176941             8719.75         -1.0259e+07         1.42086e+09
    3.61              176873             8735.16        -1.02919e+07         1.42637e+09
    3.63              176804             8750.45        -1.03248e+07         1.43189e+09
    3.65              176735             8765.62        -1.03579e+07         1.43743e+09
    3.67              176666             8780.66        -1.03909e+07         1.44298e+09
    3.69              176596             8795.58        -1.04241e+07         1.44854e+09
    3.71              176526             8810.36        -1.04573e+07         1.45411e+09
    3.73              176456             8825.02        -1.04906e+07          1.4597e+09
    3.75              176386             8839.54        -1.05239e+07         1.46529e+09
    3.77              176316             8853.92        -1.05573e+07          1.4709e+09
    3.79              176245             8868.17        -1.05907e+07         1.47651e+09
    3.81              176174             8882.28        -1.06242e+07         1.48214e+09
    3.83              176102             8896.24        -1.06578e+07         1.48778e+09
    3.85              176031             8910.06        -1.06914e+07         1.49342e+09
    3.87              175959             8923.74         -1.0725e+07         1.49908e+09
    3.89              175887             8937.26        -1.07587e+07         1.50474e+09
    3.91              175814             8950.63        -1.07925e+07         1.51042e+09
    3.93              175741             8963.86        -1.08262e+07          1.5161e+09
    3.95              175668             8976.92          -1.086e+07         1.52179e+09
    3.97              175595             8989.83        -1.08939e+07         1.52749e+09
    3.99              175522             9002.59        -1.09278e+07         1.53319e+09
    4.01              175448             9015.18        -1.09617e+07          1.5389e+09
    4.03              175374             9027.61        -1.09956e+07         1.54462e+09
    4.05              175299             9039.87        -1.10296e+07         1.55034e+09
    4.07              175224             9051.97        -1.10636e+07         1.55607e+09
    4.09              175149             9063.91        -1.10976e+07          1.5618e+09
    4.11              175074             9075.67        -1.11317e+07         1.56754e+09
    4.13              174998             9087.26        -1.11657e+07         1.57329e+09
    4.15              174922             9098.68        -1.11998e+07         1.57903e+09
    4.17              174846             9109.92        -1.12339e+07         1.58479e+09
    4.19              174769             9120.99         -1.1268e+07         1.59054e+09
    4.21              174692             9131.88        -1.13021e+07          1.5963e+09
    4.23              174615             9142.59        -1.13362e+07         1.60206e+09
    4.25              174538             9153.12        -1.13703e+07         1.60782e+09
    4.27              174460             9163.46        -1.14045e+07         1.61359e+09
    4.29              174381             9173.63        -1.14386e+07         1.61936e+09
    4.31              174303              9183.6        -1.14727e+07         1.62513e+09
    4.33              174224             9193.39        -1.15068e+07          1.6309e+09
    4.35              174144             9202.99        -1.15409e+07         1.63667e+09
    4.37              174065              9212.4         -1.1575e+07         1.64244e+09
    4.39              173985             9221.62        -1.16091e+07          1.6482e+09
    4.41              173904             9230.65        -1.16432e+07         1.65397e+09
    4.43              173824             9239.48        -1.16772e+07         1.65974e+09
    4.45              173743             9248.12        -1.17113e+07         1.66551e+09
